     QX8188NP.raw  #12646  RT: 40.5935 min
     FTMS, 538.2949@hcd27.00, z=+2, Mono m/z=538.29443 Da, MH+=1075.58159 Da, Match Tol.=0.6 Da
m/z	Intensity [counts]
80.10445	2311	y₁²⁺-NH₃	80.10445
84.07627	3118	
84.08156	32389	
85.01121	12411	
86.09716	132992	
87.05579	6066	
87.10005	3789	
103.02148	7597	
106.57048	3147	
119.05029	3370	
122.08141	3381	
126.09155	2959	
128.07176	2489	
129.10263	36488	y₂²⁺-H₂O	129.10263
130.08669	9712	y₂²⁺-NH₃	130.08669
133.07678	16469	
134.99358	6711	
136.07600	98491	
137.07912	6419	
142.11032	7217	
147.04446	78056	
147.11317	18502	
148.04712	3568	
149.04486	7049	
157.09738	4638	
157.13356	6599	
162.05453	2491	
162.07932	4216	
165.04858	4332	
167.05605	12348	
168.05696	3306	
169.05260	7330	
170.10490	2928	
171.11124	2725	
185.12874	8230	b₃²⁺-H₂O	185.12874
198.12508	2811	
199.10678	3779	
199.18069	3371	
203.01860	4227	
204.02357	2656	
204.13861	4987	
205.03633	13614	
209.16548	5349	
215.88202	14232	
215.90836	8986	
216.13518	9570	
223.04514	23680	
223.06677	3785	
224.06458	2729	
225.16080	6446	
228.13530	6616	
232.13275	13506	
234.14529	20124	
237.16074	12373	
239.09546	4402	
242.14989	6590	
247.96368	5907	
249.16028	119651	
250.14215	37847	
250.17012	3514	
251.14536	3850	
260.12952	11718	
265.97488	3658	y₅²⁺-NH₃	265.97488
270.14545	3632	
277.15530	44388	
278.15738	3684	
281.05081	4952	
281.94904	5135	
282.05109	3097	
283.05038	3816	
286.14072	4611	
299.06168	36123	
300.06128	25673	b₂⁺	300.06128
301.05972	43691	
303.16953	3155	
313.11264	3048	
313.14996	3914	
313.22366	7580	
325.98538	2580	
327.07343	9162	
330.17679	6300	
331.16113	13533	
341.21899	3177	
342.06058	2897	
345.21881	9130	y₇²⁺	345.21881
346.97559	5316	
348.18994	17374	
357.67264	4960	
361.02505	6468	
372.22903	5513	y₃⁺-NH₃	372.22903
373.08344	4715	
374.08057	4888	
375.07925	4331	
390.24063	6791	
414.21738	14394	
414.71887	5727	
416.03784	4707	
416.25403	5583	
417.03641	22006	
418.03693	3213	
424.18402	3648	
442.19373	10505	y₄⁺-H₂O, b₉²⁺-H₂O	442.19373
444.24774	3177	
456.76111	3415	
457.12762	4095	
458.13065	22001	b₄⁺	458.13065
459.12524	4469	
459.22070	17409	
460.21118	9535	y₄⁺	460.21118
464.29062	4280	
470.68958	5210	
470.75983	60824	
471.19247	15167	
471.26794	18880	
471.76355	3353	
477.23129	11138	
501.26480	5146	
503.71484	5860	
512.71967	7654	
513.22095	4310	
529.77954	3731	b₅⁺, y₅⁺-NH₃, y₅⁺-H₂O	529.77954
538.07794	9324	
538.29248	10500	
538.79004	21422	
539.08002	3418	
539.26276	33419	
576.29919	3912	
593.32751	3329	
598.28571	3304	b₆⁺-H₂O	598.28571
600.33917	3340	y₆⁺-H₂O	600.33917
615.30865	11559	
616.29840	13689	b₆⁺	616.29840
633.32007	21256	
634.32037	3250	
686.34723	14677	
687.33478	14422	b₇⁺	687.33478
704.36328	22438	
705.36340	3195	
714.34088	8996	
729.38745	4551	
758.36725	5053	y₈⁺-H₂O	758.36725
782.40283	11222	b₈⁺-H₂O	782.40283
799.42743	16396	
800.41980	24405	b₈⁺	800.41980
801.40942	2923	
810.40570	3486	
817.43457	9251	
827.42480	24045	
828.42920	4845	
913.50940	3990	
930.52271	4882	
